"File_221110_220917 - RawData"
"Wavelength nm.","Abs."
300.00,0.08766
300.50,0.09819
301.00,0.09370
301.50,0.09102
302.00,0.07603
302.50,0.07033
303.00,0.07350
303.50,0.05807
304.00,0.05615
304.50,0.05806
305.00,0.05368
305.50,0.05569
306.00,0.04930
306.50,0.05305
307.00,0.04553
307.50,0.04358
308.00,0.04042
308.50,0.03781
309.00,0.03363
309.50,0.03143
310.00,0.03333
310.50,0.03076
311.00,0.02693
311.50,0.02606
312.00,0.01868
312.50,0.01817
313.00,0.01332
313.50,0.01385
314.00,0.01396
314.50,0.01436
315.00,0.01373
315.50,0.01369
316.00,0.01079
316.50,0.00839
317.00,0.00468
317.50,0.00227
318.00,0.00066
318.50,0.00027
319.00,0.00002
319.50,0.00114
320.00,0.00136
320.50,0.00000
321.00,-0.00249
321.50,-0.00423
322.00,-0.00708
322.50,-0.01016
323.00,-0.01096
323.50,-0.01082
324.00,-0.00977
324.50,-0.00931
325.00,-0.00845
325.50,-0.00844
326.00,-0.00975
326.50,-0.01212
327.00,-0.01411
327.50,-0.01595
328.00,-0.01704
328.50,-0.01689
329.00,-0.01608
329.50,-0.01514
330.00,-0.01405
330.50,-0.01357
331.00,-0.01453
331.50,-0.01576
332.00,-0.01735
332.50,-0.01921
333.00,-0.02066
333.50,-0.02153
334.00,-0.02116
334.50,-0.02052
335.00,-0.01915
335.50,-0.01799
336.00,-0.01735
336.50,-0.01781
337.00,-0.01877
337.50,-0.02052
338.00,-0.02225
338.50,-0.02364
339.00,-0.02431
339.50,-0.02400
340.00,-0.02484
340.50,-0.02470
341.00,-0.02110
341.50,-0.01987
342.00,-0.01959
342.50,-0.02022
343.00,-0.02142
343.50,-0.02299
344.00,-0.02472
344.50,-0.02583
345.00,-0.02608
345.50,-0.02573
346.00,-0.02473
346.50,-0.02310
347.00,-0.02151
347.50,-0.02072
348.00,-0.02036
348.50,-0.02151
349.00,-0.02289
349.50,-0.02469
350.00,-0.02611
350.50,-0.02719
351.00,-0.02759
351.50,-0.02681
352.00,-0.02556
352.50,-0.02394
353.00,-0.02238
353.50,-0.02142
354.00,-0.02126
354.50,-0.02206
355.00,-0.02335
355.50,-0.02477
356.00,-0.02637
356.50,-0.02733
357.00,-0.02774
357.50,-0.02757
358.00,-0.02664
358.50,-0.02515
359.00,-0.02377
359.50,-0.02243
360.00,-0.02155
360.50,-0.02171
361.00,-0.02228
361.50,-0.02386
362.00,-0.02525
362.50,-0.02673
363.00,-0.02768
363.50,-0.02812
364.00,-0.02779
364.50,-0.02701
365.00,-0.02563
365.50,-0.02406
366.00,-0.02274
366.50,-0.02164
367.00,-0.02153
367.50,-0.02211
368.00,-0.02307
368.50,-0.02440
369.00,-0.02573
369.50,-0.02689
370.00,-0.02791
370.50,-0.02776
371.00,-0.02731
371.50,-0.02612
372.00,-0.02437
372.50,-0.02299
373.00,-0.02182
373.50,-0.02124
374.00,-0.02132
374.50,-0.02194
375.00,-0.02299
375.50,-0.02451
376.00,-0.02583
376.50,-0.02696
377.00,-0.02762
377.50,-0.02731
378.00,-0.02657
378.50,-0.02545
379.00,-0.02393
379.50,-0.02229
380.00,-0.02147
380.50,-0.02084
381.00,-0.02077
381.50,-0.02122
382.00,-0.02226
382.50,-0.02347
383.00,-0.02484
383.50,-0.02626
384.00,-0.02724
384.50,-0.02744
385.00,-0.02708
385.50,-0.02625
386.00,-0.02512
386.50,-0.02379
387.00,-0.02240
387.50,-0.02138
388.00,-0.02078
388.50,-0.02071
389.00,-0.02133
389.50,-0.02219
390.00,-0.02330
390.50,-0.02477
391.00,-0.02605
391.50,-0.02696
392.00,-0.02753
392.50,-0.02745
393.00,-0.02679
393.50,-0.02570
394.00,-0.02440
394.50,-0.02313
395.00,-0.02180
395.50,-0.02092
396.00,-0.02049
396.50,-0.02058
397.00,-0.02127
397.50,-0.02226
398.00,-0.02359
398.50,-0.02487
399.00,-0.02605
399.50,-0.02696
400.00,-0.02730
400.50,-0.02708
401.00,-0.02650
401.50,-0.02539
402.00,-0.02405
402.50,-0.02260
403.00,-0.02145
403.50,-0.02054
404.00,-0.02011
404.50,-0.02031
405.00,-0.02089
405.50,-0.02190
406.00,-0.02319
406.50,-0.02446
407.00,-0.02553
407.50,-0.02644
408.00,-0.02715
408.50,-0.02707
409.00,-0.02661
409.50,-0.02582
410.00,-0.02457
410.50,-0.02328
411.00,-0.02202
411.50,-0.02090
412.00,-0.02005
412.50,-0.01976
413.00,-0.01985
413.50,-0.02046
414.00,-0.02144
414.50,-0.02249
415.00,-0.02376
415.50,-0.02504
416.00,-0.02600
416.50,-0.02660
417.00,-0.02681
417.50,-0.02655
418.00,-0.02592
418.50,-0.02495
419.00,-0.02380
419.50,-0.02255
420.00,-0.02118
420.50,-0.02022
421.00,-0.01955
421.50,-0.01933
422.00,-0.01965
422.50,-0.02026
423.00,-0.02132
423.50,-0.02252
424.00,-0.02371
424.50,-0.02492
425.00,-0.02583
425.50,-0.02640
426.00,-0.02652
426.50,-0.02621
427.00,-0.02551
427.50,-0.02458
428.00,-0.02348
428.50,-0.02222
429.00,-0.02090
429.50,-0.01996
430.00,-0.01926
430.50,-0.01900
431.00,-0.01901
431.50,-0.01938
432.00,-0.02029
432.50,-0.02130
433.00,-0.02257
433.50,-0.02373
434.00,-0.02472
434.50,-0.02562
435.00,-0.02611
435.50,-0.02626
436.00,-0.02605
436.50,-0.02541
437.00,-0.02414
437.50,-0.02307
438.00,-0.02197
438.50,-0.02090
439.00,-0.01987
439.50,-0.01910
440.00,-0.01863
440.50,-0.01855
441.00,-0.01872
441.50,-0.01924
442.00,-0.01997
442.50,-0.02100
443.00,-0.02213
443.50,-0.02330
444.00,-0.02431
444.50,-0.02524
445.00,-0.02574
445.50,-0.02597
446.00,-0.02573
446.50,-0.02512
447.00,-0.02419
447.50,-0.02309
448.00,-0.02205
448.50,-0.02081
449.00,-0.01971
449.50,-0.01898
450.00,-0.01862
450.50,-0.01833
451.00,-0.01849
451.50,-0.01895
452.00,-0.01967
452.50,-0.02068
453.00,-0.02185
453.50,-0.02299
454.00,-0.02402
454.50,-0.02493
455.00,-0.02542
455.50,-0.02571
456.00,-0.02568
456.50,-0.02538
457.00,-0.02475
457.50,-0.02386
458.00,-0.02290
458.50,-0.02180
459.00,-0.02071
459.50,-0.01978
460.00,-0.01888
460.50,-0.01822
461.00,-0.01796
461.50,-0.01791
462.00,-0.01825
462.50,-0.01881
463.00,-0.01965
463.50,-0.02063
464.00,-0.02159
464.50,-0.02272
465.00,-0.02371
465.50,-0.02438
466.00,-0.02504
466.50,-0.02541
467.00,-0.02548
467.50,-0.02522
468.00,-0.02470
468.50,-0.02400
469.00,-0.02301
469.50,-0.02196
470.00,-0.02072
470.50,-0.01964
471.00,-0.01871
471.50,-0.01804
472.00,-0.01764
472.50,-0.01756
473.00,-0.01775
473.50,-0.01805
474.00,-0.01865
474.50,-0.01961
475.00,-0.02072
475.50,-0.02179
476.00,-0.02277
476.50,-0.02376
477.00,-0.02451
477.50,-0.02493
478.00,-0.02518
478.50,-0.02518
479.00,-0.02484
479.50,-0.02431
480.00,-0.02345
480.50,-0.02258
481.00,-0.02164
481.50,-0.02061
482.00,-0.01962
482.50,-0.01872
483.00,-0.01799
483.50,-0.01741
484.00,-0.01711
484.50,-0.01703
485.00,-0.01735
485.50,-0.01794
486.00,-0.01875
486.50,-0.01962
487.00,-0.02046
487.50,-0.02144
488.00,-0.02229
488.50,-0.02312
489.00,-0.02370
489.50,-0.02441
490.00,-0.02486
490.50,-0.02493
491.00,-0.02472
491.50,-0.02435
492.00,-0.02373
492.50,-0.02303
493.00,-0.02220
493.50,-0.02124
494.00,-0.02019
494.50,-0.01897
495.00,-0.01807
495.50,-0.01736
496.00,-0.01695
496.50,-0.01671
497.00,-0.01666
497.50,-0.01688
498.00,-0.01732
498.50,-0.01801
499.00,-0.01889
499.50,-0.01982
500.00,-0.02086
500.50,-0.02184
501.00,-0.02281
501.50,-0.02359
502.00,-0.02414
502.50,-0.02448
503.00,-0.02477
503.50,-0.02473
504.00,-0.02443
504.50,-0.02388
505.00,-0.02316
505.50,-0.02237
506.00,-0.02155
506.50,-0.02057
507.00,-0.01959
507.50,-0.01866
508.00,-0.01787
508.50,-0.01717
509.00,-0.01666
509.50,-0.01646
510.00,-0.01640
510.50,-0.01660
511.00,-0.01692
511.50,-0.01750
512.00,-0.01826
512.50,-0.01907
513.00,-0.01988
513.50,-0.02072
514.00,-0.02168
514.50,-0.02249
515.00,-0.02321
515.50,-0.02373
516.00,-0.02422
516.50,-0.02440
517.00,-0.02434
517.50,-0.02412
518.00,-0.02376
518.50,-0.02309
519.00,-0.02240
519.50,-0.02158
520.00,-0.02049
520.50,-0.01945
521.00,-0.01857
521.50,-0.01797
522.00,-0.01729
522.50,-0.01657
523.00,-0.01605
523.50,-0.01588
524.00,-0.01610
524.50,-0.01633
525.00,-0.01672
525.50,-0.01720
526.00,-0.01790
526.50,-0.01872
527.00,-0.01964
527.50,-0.02049
528.00,-0.02139
528.50,-0.02220
529.00,-0.02289
529.50,-0.02335
530.00,-0.02382
530.50,-0.02406
531.00,-0.02412
531.50,-0.02403
532.00,-0.02370
532.50,-0.02316
533.00,-0.02246
533.50,-0.02161
534.00,-0.02069
534.50,-0.01985
535.00,-0.01892
535.50,-0.01808
536.00,-0.01752
536.50,-0.01672
537.00,-0.01628
537.50,-0.01588
538.00,-0.01561
538.50,-0.01559
539.00,-0.01578
539.50,-0.01601
540.00,-0.01648
540.50,-0.01706
541.00,-0.01773
541.50,-0.01852
542.00,-0.01936
542.50,-0.02025
543.00,-0.02106
543.50,-0.02194
544.00,-0.02274
544.50,-0.02321
545.00,-0.02350
545.50,-0.02370
546.00,-0.02373
546.50,-0.02371
547.00,-0.02347
547.50,-0.02304
548.00,-0.02231
548.50,-0.02162
549.00,-0.02089
549.50,-0.02003
550.00,-0.01912
550.50,-0.01819
551.00,-0.01741
551.50,-0.01675
552.00,-0.01619
552.50,-0.01572
553.00,-0.01537
553.50,-0.01517
554.00,-0.01521
554.50,-0.01535
555.00,-0.01570
555.50,-0.01610
556.00,-0.01671
556.50,-0.01740
557.00,-0.01799
557.50,-0.01862
558.00,-0.01939
558.50,-0.02016
559.00,-0.02097
559.50,-0.02158
560.00,-0.02206
560.50,-0.02263
561.00,-0.02310
561.50,-0.02332
562.00,-0.02338
562.50,-0.02325
563.00,-0.02307
563.50,-0.02266
564.00,-0.02208
564.50,-0.02150
565.00,-0.02086
565.50,-0.02026
566.00,-0.01933
566.50,-0.01851
567.00,-0.01778
567.50,-0.01698
568.00,-0.01639
568.50,-0.01576
569.00,-0.01526
569.50,-0.01495
570.00,-0.01479
570.50,-0.01480
571.00,-0.01498
571.50,-0.01517
572.00,-0.01541
572.50,-0.01596
573.00,-0.01657
573.50,-0.01732
574.00,-0.01802
574.50,-0.01872
575.00,-0.01949
575.50,-0.02023
576.00,-0.02103
576.50,-0.02158
577.00,-0.02200
577.50,-0.02240
578.00,-0.02277
578.50,-0.02293
579.00,-0.02301
579.50,-0.02295
580.00,-0.02269
580.50,-0.02231
581.00,-0.02196
581.50,-0.02135
582.00,-0.02061
582.50,-0.01985
583.00,-0.01909
583.50,-0.01836
584.00,-0.01761
584.50,-0.01691
585.00,-0.01625
585.50,-0.01561
586.00,-0.01511
586.50,-0.01488
587.00,-0.01465
587.50,-0.01448
588.00,-0.01427
588.50,-0.01436
589.00,-0.01457
589.50,-0.01491
590.00,-0.01521
590.50,-0.01572
591.00,-0.01639
591.50,-0.01700
592.00,-0.01779
592.50,-0.01849
593.00,-0.01910
593.50,-0.01976
594.00,-0.02040
594.50,-0.02090
595.00,-0.02142
595.50,-0.02194
596.00,-0.02225
596.50,-0.02252
597.00,-0.02264
597.50,-0.02257
598.00,-0.02235
598.50,-0.02209
599.00,-0.02153
599.50,-0.02101
600.00,-0.02043
600.50,-0.01979
601.00,-0.01917
601.50,-0.01848
602.00,-0.01776
602.50,-0.01711
603.00,-0.01653
603.50,-0.01590
604.00,-0.01540
604.50,-0.01488
605.00,-0.01443
605.50,-0.01407
606.00,-0.01387
606.50,-0.01387
607.00,-0.01393
607.50,-0.01414
608.00,-0.01448
608.50,-0.01495
609.00,-0.01538
609.50,-0.01570
610.00,-0.01619
610.50,-0.01675
611.00,-0.01743
611.50,-0.01810
612.00,-0.01877
612.50,-0.01939
613.00,-0.01993
613.50,-0.02052
614.00,-0.02116
614.50,-0.02155
615.00,-0.02180
615.50,-0.02206
616.00,-0.02211
616.50,-0.02219
617.00,-0.02209
617.50,-0.02182
618.00,-0.02159
618.50,-0.02124
619.00,-0.02077
619.50,-0.02031
620.00,-0.01968
620.50,-0.01910
621.00,-0.01840
621.50,-0.01764
622.00,-0.01686
622.50,-0.01619
623.00,-0.01564
623.50,-0.01503
624.00,-0.01466
624.50,-0.01425
625.00,-0.01396
625.50,-0.01376
626.00,-0.01357
626.50,-0.01355
627.00,-0.01361
627.50,-0.01363
628.00,-0.01387
628.50,-0.01425
629.00,-0.01472
629.50,-0.01515
630.00,-0.01572
630.50,-0.01633
631.00,-0.01686
631.50,-0.01747
632.00,-0.01807
632.50,-0.01868
633.00,-0.01926
633.50,-0.01974
634.00,-0.02011
634.50,-0.02057
635.00,-0.02101
635.50,-0.02127
636.00,-0.02153
636.50,-0.02168
637.00,-0.02173
637.50,-0.02174
638.00,-0.02165
638.50,-0.02133
639.00,-0.02098
639.50,-0.02057
640.00,-0.02005
640.50,-0.01959
641.00,-0.01906
641.50,-0.01848
642.00,-0.01781
642.50,-0.01720
643.00,-0.01660
643.50,-0.01598
644.00,-0.01538
644.50,-0.01485
645.00,-0.01424
645.50,-0.01381
646.00,-0.01343
646.50,-0.01309
647.00,-0.01295
647.50,-0.01288
648.00,-0.01289
648.50,-0.01297
649.00,-0.01323
649.50,-0.01344
650.00,-0.01373
650.50,-0.01399
651.00,-0.01439
651.50,-0.01503
652.00,-0.01569
652.50,-0.01619
653.00,-0.01672
653.50,-0.01726
654.00,-0.01785
654.50,-0.01845
655.00,-0.01909
655.50,-0.01955
656.00,-0.01993
656.50,-0.02029
657.00,-0.02066
657.50,-0.02090
658.00,-0.02110
658.50,-0.02130
659.00,-0.02132
659.50,-0.02122
660.00,-0.02107
660.50,-0.02087
661.00,-0.02069
661.50,-0.02034
662.00,-0.01987
662.50,-0.01938
663.00,-0.01878
663.50,-0.01833
664.00,-0.01782
664.50,-0.01721
665.00,-0.01654
665.50,-0.01601
666.00,-0.01549
666.50,-0.01488
667.00,-0.01439
667.50,-0.01390
668.00,-0.01349
668.50,-0.01312
669.00,-0.01292
669.50,-0.01273
670.00,-0.01262
670.50,-0.01259
671.00,-0.01257
671.50,-0.01262
672.00,-0.01282
672.50,-0.01295
673.00,-0.01334
673.50,-0.01381
674.00,-0.01425
674.50,-0.01465
675.00,-0.01514
675.50,-0.01561
676.00,-0.01598
676.50,-0.01649
677.00,-0.01711
677.50,-0.01773
678.00,-0.01831
678.50,-0.01874
679.00,-0.01915
679.50,-0.01961
680.00,-0.01996
680.50,-0.02028
681.00,-0.02058
681.50,-0.02077
682.00,-0.02097
682.50,-0.02089
683.00,-0.02077
683.50,-0.02061
684.00,-0.02061
684.50,-0.02045
685.00,-0.02013
685.50,-0.01971
686.00,-0.01935
686.50,-0.01889
687.00,-0.01845
687.50,-0.01797
688.00,-0.01753
688.50,-0.01703
689.00,-0.01648
689.50,-0.01588
690.00,-0.01517
690.50,-0.01457
691.00,-0.01410
691.50,-0.01361
692.00,-0.01335
692.50,-0.01297
693.00,-0.01262
693.50,-0.01236
694.00,-0.01221
694.50,-0.01212
695.00,-0.01204
695.50,-0.01204
696.00,-0.01201
696.50,-0.01218
697.00,-0.01241
697.50,-0.01266
698.00,-0.01294
698.50,-0.01321
699.00,-0.01364
699.50,-0.01401
700.00,-0.01445
700.50,-0.01497
701.00,-0.01547
701.50,-0.01596
702.00,-0.01648
702.50,-0.01704
703.00,-0.01761
703.50,-0.01802
704.00,-0.01846
704.50,-0.01889
705.00,-0.01933
705.50,-0.01964
706.00,-0.01993
706.50,-0.02017
707.00,-0.02025
707.50,-0.02034
708.00,-0.02034
708.50,-0.02023
709.00,-0.02017
709.50,-0.02002
710.00,-0.01996
710.50,-0.01973
711.00,-0.01935
711.50,-0.01897
712.00,-0.01866
712.50,-0.01826
713.00,-0.01782
713.50,-0.01720
714.00,-0.01665
714.50,-0.01616
715.00,-0.01564
715.50,-0.01514
716.00,-0.01456
716.50,-0.01407
717.00,-0.01364
717.50,-0.01318
718.00,-0.01283
718.50,-0.01247
719.00,-0.01221
719.50,-0.01196
720.00,-0.01169
720.50,-0.01151
721.00,-0.01146
721.50,-0.01149
722.00,-0.01143
722.50,-0.01144
723.00,-0.01164
723.50,-0.01184
724.00,-0.01212
724.50,-0.01234
725.00,-0.01279
725.50,-0.01321
726.00,-0.01361
726.50,-0.01401
727.00,-0.01434
727.50,-0.01479
728.00,-0.01521
728.50,-0.01567
729.00,-0.01614
729.50,-0.01654
730.00,-0.01704
730.50,-0.01747
731.00,-0.01782
731.50,-0.01819
732.00,-0.01852
732.50,-0.01878
733.00,-0.01912
733.50,-0.01930
734.00,-0.01942
734.50,-0.01961
735.00,-0.01973
735.50,-0.01971
736.00,-0.01961
736.50,-0.01952
737.00,-0.01939
737.50,-0.01930
738.00,-0.01909
738.50,-0.01883
739.00,-0.01851
739.50,-0.01808
740.00,-0.01761
740.50,-0.01724
741.00,-0.01685
741.50,-0.01640
742.00,-0.01588
742.50,-0.01550
743.00,-0.01506
743.50,-0.01454
744.00,-0.01411
744.50,-0.01373
745.00,-0.01335
745.50,-0.01295
746.00,-0.01259
746.50,-0.01225
747.00,-0.01192
747.50,-0.01172
748.00,-0.01149
748.50,-0.01132
749.00,-0.01111
749.50,-0.01100
750.00,-0.01091
750.50,-0.01097
751.00,-0.01105
751.50,-0.01122
752.00,-0.01132
752.50,-0.01152
753.00,-0.01175
753.50,-0.01198
754.00,-0.01222
754.50,-0.01253
755.00,-0.01282
755.50,-0.01315
756.00,-0.01358
756.50,-0.01405
757.00,-0.01454
757.50,-0.01488
758.00,-0.01527
758.50,-0.01575
759.00,-0.01619
759.50,-0.01666
760.00,-0.01711
760.50,-0.01743
761.00,-0.01781
761.50,-0.01811
762.00,-0.01849
762.50,-0.01871
763.00,-0.01892
763.50,-0.01904
764.00,-0.01910
764.50,-0.01926
765.00,-0.01942
765.50,-0.01926
766.00,-0.01917
766.50,-0.01907
767.00,-0.01884
767.50,-0.01859
768.00,-0.01831
768.50,-0.01814
769.00,-0.01796
769.50,-0.01761
770.00,-0.01727
770.50,-0.01694
771.00,-0.01657
771.50,-0.01614
772.00,-0.01569
772.50,-0.01524
773.00,-0.01486
773.50,-0.01437
774.00,-0.01392
774.50,-0.01355
775.00,-0.01309
775.50,-0.01265
776.00,-0.01225
776.50,-0.01193
777.00,-0.01167
777.50,-0.01138
778.00,-0.01111
778.50,-0.01085
779.00,-0.01068
779.50,-0.01053
780.00,-0.01038
780.50,-0.01030
781.00,-0.01028
781.50,-0.01035
782.00,-0.01044
782.50,-0.01048
783.00,-0.01060
783.50,-0.01073
784.00,-0.01096
784.50,-0.01117
785.00,-0.01151
785.50,-0.01186
786.00,-0.01218
786.50,-0.01250
787.00,-0.01283
787.50,-0.01321
788.00,-0.01357
788.50,-0.01389
789.00,-0.01425
789.50,-0.01466
790.00,-0.01514
790.50,-0.01553
791.00,-0.01578
791.50,-0.01614
792.00,-0.01649
792.50,-0.01686
793.00,-0.01721
793.50,-0.01747
794.00,-0.01776
794.50,-0.01810
795.00,-0.01828
795.50,-0.01834
796.00,-0.01839
796.50,-0.01840
797.00,-0.01852
797.50,-0.01862
798.00,-0.01865
798.50,-0.01865
799.00,-0.01854
799.50,-0.01830
800.00,-0.01796
800.50,-0.01793
801.00,-0.01782
801.50,-0.01761
802.00,-0.01729
802.50,-0.01682
803.00,-0.01636
803.50,-0.01610
804.00,-0.01575
804.50,-0.01537
805.00,-0.01498
805.50,-0.01460
806.00,-0.01413
806.50,-0.01367
807.00,-0.01328
807.50,-0.01289
808.00,-0.01263
808.50,-0.01221
809.00,-0.01184
809.50,-0.01140
810.00,-0.01108
810.50,-0.01086
811.00,-0.01059
811.50,-0.01039
812.00,-0.01013
812.50,-0.00999
813.00,-0.00992
813.50,-0.00983
814.00,-0.00974
814.50,-0.00977
815.00,-0.00977
815.50,-0.00986
816.00,-0.00995
816.50,-0.01003
817.00,-0.01016
817.50,-0.01036
818.00,-0.01051
818.50,-0.01065
819.00,-0.01089
819.50,-0.01114
820.00,-0.01151
820.50,-0.01181
821.00,-0.01210
821.50,-0.01242
822.00,-0.01276
822.50,-0.01299
823.00,-0.01332
823.50,-0.01381
824.00,-0.01422
824.50,-0.01459
825.00,-0.01494
825.50,-0.01521
826.00,-0.01549
826.50,-0.01590
827.00,-0.01624
827.50,-0.01653
828.00,-0.01678
828.50,-0.01703
829.00,-0.01730
829.50,-0.01744
830.00,-0.01753
830.50,-0.01776
831.00,-0.01790
831.50,-0.01793
832.00,-0.01793
832.50,-0.01791
833.00,-0.01790
833.50,-0.01787
834.00,-0.01781
834.50,-0.01761
835.00,-0.01743
835.50,-0.01732
836.00,-0.01717
836.50,-0.01692
837.00,-0.01666
837.50,-0.01642
838.00,-0.01616
838.50,-0.01587
839.00,-0.01555
839.50,-0.01523
840.00,-0.01488
840.50,-0.01450
841.00,-0.01419
841.50,-0.01381
842.00,-0.01347
842.50,-0.01311
843.00,-0.01274
843.50,-0.01239
844.00,-0.01204
844.50,-0.01176
845.00,-0.01147
845.50,-0.01125
846.00,-0.01096
846.50,-0.01065
847.00,-0.01036
847.50,-0.01019
848.00,-0.01004
848.50,-0.00987
849.00,-0.00969
849.50,-0.00955
850.00,-0.00949
850.50,-0.00935
851.00,-0.00926
851.50,-0.00916
852.00,-0.00914
852.50,-0.00926
853.00,-0.00935
853.50,-0.00938
854.00,-0.00954
854.50,-0.00969
855.00,-0.00984
855.50,-0.01006
856.00,-0.01038
856.50,-0.01073
857.00,-0.01091
857.50,-0.01112
858.00,-0.01134
858.50,-0.01161
859.00,-0.01190
859.50,-0.01227
860.00,-0.01263
860.50,-0.01297
861.00,-0.01332
861.50,-0.01367
862.00,-0.01399
862.50,-0.01425
863.00,-0.01460
863.50,-0.01486
864.00,-0.01506
864.50,-0.01534
865.00,-0.01553
865.50,-0.01588
866.00,-0.01622
866.50,-0.01634
867.00,-0.01649
867.50,-0.01669
868.00,-0.01685
868.50,-0.01697
869.00,-0.01712
869.50,-0.01726
870.00,-0.01729
870.50,-0.01730
871.00,-0.01732
871.50,-0.01738
872.00,-0.01733
872.50,-0.01726
873.00,-0.01718
873.50,-0.01707
874.00,-0.01683
874.50,-0.01668
875.00,-0.01651
875.50,-0.01637
876.00,-0.01617
876.50,-0.01579
877.00,-0.01553
877.50,-0.01529
878.00,-0.01500
878.50,-0.01471
879.00,-0.01445
879.50,-0.01419
880.00,-0.01389
880.50,-0.01350
881.00,-0.01305
881.50,-0.01268
882.00,-0.01233
882.50,-0.01212
883.00,-0.01189
883.50,-0.01152
884.00,-0.01114
884.50,-0.01089
885.00,-0.01067
885.50,-0.01024
886.00,-0.00989
886.50,-0.00969
887.00,-0.00954
887.50,-0.00937
888.00,-0.00917
888.50,-0.00908
889.00,-0.00905
889.50,-0.00899
890.00,-0.00891
890.50,-0.00885
891.00,-0.00870
891.50,-0.00851
892.00,-0.00842
892.50,-0.00847
893.00,-0.00865
893.50,-0.00883
894.00,-0.00887
894.50,-0.00902
895.00,-0.00926
895.50,-0.00938
896.00,-0.00954
896.50,-0.00967
897.00,-0.00980
897.50,-0.00998
898.00,-0.01022
898.50,-0.01057
899.00,-0.01089
899.50,-0.01115
900.00,-0.01143
900.50,-0.01157
901.00,-0.01181
901.50,-0.01227
902.00,-0.01268
902.50,-0.01299
903.00,-0.01334
903.50,-0.01352
904.00,-0.01373
904.50,-0.01408
905.00,-0.01431
905.50,-0.01463
906.00,-0.01492
906.50,-0.01511
907.00,-0.01530
907.50,-0.01559
908.00,-0.01588
908.50,-0.01593
909.00,-0.01599
909.50,-0.01630
910.00,-0.01654
910.50,-0.01662
911.00,-0.01663
911.50,-0.01683
912.00,-0.01714
912.50,-0.01704
913.00,-0.01695
913.50,-0.01678
914.00,-0.01677
914.50,-0.01686
915.00,-0.01689
915.50,-0.01668
916.00,-0.01637
916.50,-0.01631
917.00,-0.01622
917.50,-0.01614
918.00,-0.01596
918.50,-0.01558
919.00,-0.01515
919.50,-0.01505
920.00,-0.01488
920.50,-0.01462
921.00,-0.01428
921.50,-0.01399
922.00,-0.01382
922.50,-0.01363
923.00,-0.01314
923.50,-0.01282
924.00,-0.01256
924.50,-0.01221
925.00,-0.01192
925.50,-0.01169
926.00,-0.01157
926.50,-0.01123
927.00,-0.01079
927.50,-0.01064
928.00,-0.01048
928.50,-0.01013
929.00,-0.00984
929.50,-0.00967
930.00,-0.00957
930.50,-0.00926
931.00,-0.00896
931.50,-0.00887
932.00,-0.00882
932.50,-0.00856
933.00,-0.00833
933.50,-0.00822
934.00,-0.00815
934.50,-0.00813
935.00,-0.00822
935.50,-0.00809
936.00,-0.00803
936.50,-0.00812
937.00,-0.00821
937.50,-0.00821
938.00,-0.00821
938.50,-0.00835
939.00,-0.00854
939.50,-0.00858
940.00,-0.00867
940.50,-0.00888
941.00,-0.00914
941.50,-0.00935
942.00,-0.00954
942.50,-0.00966
943.00,-0.00981
943.50,-0.01016
944.00,-0.01050
944.50,-0.01076
945.00,-0.01093
945.50,-0.01114
946.00,-0.01132
946.50,-0.01164
947.00,-0.01199
947.50,-0.01224
948.00,-0.01239
948.50,-0.01260
949.00,-0.01305
949.50,-0.01338
950.00,-0.01361
950.50,-0.01381
951.00,-0.01404
951.50,-0.01428
952.00,-0.01450
952.50,-0.01466
953.00,-0.01483
953.50,-0.01508
954.00,-0.01540
954.50,-0.01556
955.00,-0.01570
955.50,-0.01588
956.00,-0.01595
956.50,-0.01604
957.00,-0.01610
957.50,-0.01617
958.00,-0.01624
958.50,-0.01633
959.00,-0.01637
959.50,-0.01639
960.00,-0.01628
960.50,-0.01622
961.00,-0.01616
961.50,-0.01608
962.00,-0.01607
962.50,-0.01599
963.00,-0.01585
963.50,-0.01573
964.00,-0.01561
964.50,-0.01553
965.00,-0.01537
965.50,-0.01517
966.00,-0.01492
966.50,-0.01471
967.00,-0.01439
967.50,-0.01416
968.00,-0.01401
968.50,-0.01369
969.00,-0.01341
969.50,-0.01315
970.00,-0.01291
970.50,-0.01265
971.00,-0.01233
971.50,-0.01208
972.00,-0.01178
972.50,-0.01157
973.00,-0.01134
973.50,-0.01108
974.00,-0.01086
974.50,-0.01059
975.00,-0.01042
975.50,-0.01019
976.00,-0.00995
976.50,-0.00960
977.00,-0.00928
977.50,-0.00916
978.00,-0.00899
978.50,-0.00883
979.00,-0.00862
979.50,-0.00851
980.00,-0.00845
980.50,-0.00832
981.00,-0.00816
981.50,-0.00801
982.00,-0.00789
982.50,-0.00772
983.00,-0.00761
983.50,-0.00752
984.00,-0.00746
984.50,-0.00746
985.00,-0.00742
985.50,-0.00746
986.00,-0.00758
986.50,-0.00768
987.00,-0.00772
987.50,-0.00783
988.00,-0.00793
988.50,-0.00809
989.00,-0.00821
989.50,-0.00829
990.00,-0.00835
990.50,-0.00851
991.00,-0.00865
991.50,-0.00894
992.00,-0.00903
992.50,-0.00928
993.00,-0.00952
993.50,-0.00975
994.00,-0.00987
994.50,-0.01013
995.00,-0.01035
995.50,-0.01056
996.00,-0.01077
996.50,-0.01108
997.00,-0.01129
997.50,-0.01151
998.00,-0.01183
998.50,-0.01210
999.00,-0.01237
999.50,-0.01265
1000.00,-0.01283
1000.50,-0.01300
1001.00,-0.01321
1001.50,-0.01347
1002.00,-0.01376
1002.50,-0.01396
1003.00,-0.01414
1003.50,-0.01431
1004.00,-0.01447
1004.50,-0.01462
1005.00,-0.01472
1005.50,-0.01486
1006.00,-0.01492
1006.50,-0.01517
1007.00,-0.01541
1007.50,-0.01546
1008.00,-0.01553
1008.50,-0.01556
1009.00,-0.01550
1009.50,-0.01553
1010.00,-0.01563
1010.50,-0.01579
1011.00,-0.01584
1011.50,-0.01584
1012.00,-0.01578
1012.50,-0.01569
1013.00,-0.01558
1013.50,-0.01550
1014.00,-0.01541
1014.50,-0.01540
1015.00,-0.01535
1015.50,-0.01524
1016.00,-0.01509
1016.50,-0.01497
1017.00,-0.01482
1017.50,-0.01459
1018.00,-0.01437
1018.50,-0.01418
1019.00,-0.01390
1019.50,-0.01373
1020.00,-0.01363
1020.50,-0.01335
1021.00,-0.01318
1021.50,-0.01297
1022.00,-0.01274
1022.50,-0.01250
1023.00,-0.01222
1023.50,-0.01198
1024.00,-0.01169
1024.50,-0.01158
1025.00,-0.01128
1025.50,-0.01099
1026.00,-0.01070
1026.50,-0.01047
1027.00,-0.01022
1027.50,-0.01007
1028.00,-0.00987
1028.50,-0.00963
1029.00,-0.00945
1029.50,-0.00926
1030.00,-0.00900
1030.50,-0.00876
1031.00,-0.00847
1031.50,-0.00830
1032.00,-0.00813
1032.50,-0.00801
1033.00,-0.00795
1033.50,-0.00780
1034.00,-0.00766
1034.50,-0.00755
1035.00,-0.00732
1035.50,-0.00722
1036.00,-0.00714
1036.50,-0.00708
1037.00,-0.00706
1037.50,-0.00699
1038.00,-0.00700
1038.50,-0.00694
1039.00,-0.00688
1039.50,-0.00687
1040.00,-0.00679
1040.50,-0.00679
1041.00,-0.00690
1041.50,-0.00699
1042.00,-0.00720
1042.50,-0.00728
1043.00,-0.00728
1043.50,-0.00735
1044.00,-0.00740
1044.50,-0.00757
1045.00,-0.00769
1045.50,-0.00783
1046.00,-0.00800
1046.50,-0.00819
1047.00,-0.00838
1047.50,-0.00839
1048.00,-0.00850
1048.50,-0.00885
1049.00,-0.00902
1049.50,-0.00925
1050.00,-0.00961
1050.50,-0.00980
1051.00,-0.01003
1051.50,-0.01012
1052.00,-0.01007
1052.50,-0.01039
1053.00,-0.01073
1053.50,-0.01105
1054.00,-0.01140
1054.50,-0.01138
1055.00,-0.01137
1055.50,-0.01172
1056.00,-0.01201
1056.50,-0.01225
1057.00,-0.01251
1057.50,-0.01256
1058.00,-0.01262
1058.50,-0.01282
1059.00,-0.01302
1059.50,-0.01329
1060.00,-0.01366
1060.50,-0.01378
1061.00,-0.01389
1061.50,-0.01398
1062.00,-0.01393
1062.50,-0.01421
1063.00,-0.01451
1063.50,-0.01459
1064.00,-0.01465
1064.50,-0.01463
1065.00,-0.01469
1065.50,-0.01480
1066.00,-0.01497
1066.50,-0.01500
1067.00,-0.01494
1067.50,-0.01495
1068.00,-0.01497
1068.50,-0.01500
1069.00,-0.01509
1069.50,-0.01494
1070.00,-0.01482
1070.50,-0.01469
1071.00,-0.01479
1071.50,-0.01483
1072.00,-0.01477
1072.50,-0.01465
1073.00,-0.01448
1073.50,-0.01442
1074.00,-0.01434
1074.50,-0.01418
1075.00,-0.01393
1075.50,-0.01390
1076.00,-0.01389
1076.50,-0.01352
1077.00,-0.01320
1077.50,-0.01314
1078.00,-0.01317
1078.50,-0.01305
1079.00,-0.01273
1079.50,-0.01239
1080.00,-0.01218
1080.50,-0.01204
1081.00,-0.01196
1081.50,-0.01155
1082.00,-0.01106
1082.50,-0.01086
1083.00,-0.01083
1083.50,-0.01074
1084.00,-0.01028
1084.50,-0.00938
1085.00,-0.00923
1085.50,-0.00972
1086.00,-0.00977
1086.50,-0.00938
1087.00,-0.00906
1087.50,-0.00887
1088.00,-0.00865
1088.50,-0.00850
1089.00,-0.00842
1089.50,-0.00827
1090.00,-0.00813
1090.50,-0.00787
1091.00,-0.00766
1091.50,-0.00757
1092.00,-0.00740
1092.50,-0.00722
1093.00,-0.00691
1093.50,-0.00708
1094.00,-0.00700
1094.50,-0.00679
1095.00,-0.00658
1095.50,-0.00641
1096.00,-0.00626
1096.50,-0.00626
1097.00,-0.00636
1097.50,-0.00623
1098.00,-0.00615
1098.50,-0.00615
1099.00,-0.00623
1099.50,-0.00624
1100.00,-0.00620
